# Cristaline olivine (mg2)
# The main source of these data is the measurement made by Mukai and Koike (1990, 
# Icarus 87, 180). 
# The data is constructed as following:
# 1. For wavelength between 7--200 micron, calculate (m', m") of crystallines
#    olivine by calculating 17 Lorentz oscillators (the dispersion parameters were
#    given in Mukai and Koike 1990);
# 2. For wavelength larger than 200 micron, assume m" to be proportional to
#    lambda^{-1};
# 3. For wavelength shorter than 0.3 micron, we adopt those (m") of crystalline
#    olivine (Huffman and Stapp 1973);
# 4. For 0.3 -- 2 micron, we adopt m" intermediate of Jones and Merrill 1976
#    and Martin and Crabtree 1983, very close to Draine and Lee 1984;
# 5. Smoothly connect the above m" then construct m" between 2--7 micron;
# 6. Then calculate m' from m" by using Kramers-Kronig relation.
1181    3.2
     0.010   0.975085E+00   0.170999E-01
     0.011   0.974551E+00   0.217622E-01
     0.012   0.972102E+00   0.208170E-01
     0.013   0.966768E+00   0.249088E-01
     0.014   0.963533E+00   0.289905E-01
     0.015   0.959932E+00   0.333853E-01
     0.016   0.956571E+00   0.380859E-01
     0.017   0.953427E+00   0.432318E-01
     0.018   0.950996E+00   0.486736E-01
     0.019   0.949686E+00   0.536005E-01
     0.020   0.948529E+00   0.565841E-01
     0.021   0.945267E+00   0.581805E-01
     0.022   0.939751E+00   0.609539E-01
     0.023   0.933829E+00   0.657137E-01
     0.024   0.928561E+00   0.715879E-01
     0.025   0.923918E+00   0.778473E-01
     0.026   0.919663E+00   0.842144E-01
     0.027   0.915630E+00   0.906121E-01
     0.028   0.911729E+00   0.970276E-01
     0.029   0.907916E+00   0.103432E+00
     0.030   0.904136E+00   0.109788E+00
     0.031   0.900303E+00   0.116064E+00
     0.032   0.896370E+00   0.122315E+00
     0.033   0.892374E+00   0.128506E+00
     0.034   0.888318E+00   0.134503E+00
     0.035   0.884151E+00   0.139952E+00
     0.036   0.878959E+00   0.144277E+00
     0.037   0.871118E+00   0.148514E+00
     0.038   0.861083E+00   0.155376E+00
     0.039   0.851809E+00   0.165554E+00
     0.040   0.844986E+00   0.176433E+00
     0.041   0.838891E+00   0.185730E+00
     0.042   0.831438E+00   0.194269E+00
     0.043   0.822342E+00   0.203459E+00
     0.044   0.811915E+00   0.214197E+00
     0.045   0.800907E+00   0.227326E+00
     0.046   0.790607E+00   0.242959E+00
     0.047   0.782053E+00   0.260218E+00
     0.048   0.775215E+00   0.277790E+00
     0.049   0.769492E+00   0.295120E+00
     0.050   0.764269E+00   0.311882E+00
     0.051   0.759045E+00   0.328124E+00
     0.052   0.753191E+00   0.343636E+00
     0.053   0.745778E+00   0.358696E+00
     0.054   0.735575E+00   0.373952E+00
     0.055   0.721809E+00   0.391482E+00
     0.056   0.705051E+00   0.413345E+00
     0.057   0.686274E+00   0.441362E+00
     0.058   0.667628E+00   0.477552E+00
     0.059   0.651705E+00   0.522872E+00
     0.060   0.643488E+00   0.578596E+00
     0.061   0.648464E+00   0.640215E+00
     0.062   0.668256E+00   0.701876E+00
     0.063   0.701983E+00   0.756908E+00
     0.064   0.743700E+00   0.800105E+00
     0.065   0.787841E+00   0.832897E+00
     0.066   0.831468E+00   0.856484E+00
     0.067   0.872686E+00   0.873868E+00
     0.068   0.911738E+00   0.886552E+00
     0.069   0.948208E+00   0.895256E+00
     0.070   0.981716E+00   0.901216E+00
     0.071   0.101260E+01   0.905626E+00
     0.072   0.104147E+01   0.909051E+00
     0.073   0.106877E+01   0.911774E+00
     0.074   0.109504E+01   0.913871E+00
     0.075   0.112039E+01   0.914896E+00
     0.076   0.114441E+01   0.915003E+00
     0.077   0.116724E+01   0.914581E+00
     0.078   0.118894E+01   0.913722E+00
     0.079   0.120965E+01   0.912864E+00
     0.080   0.123019E+01   0.912167E+00
     0.081   0.125103E+01   0.910599E+00
     0.082   0.127154E+01   0.907605E+00
     0.083   0.129187E+01   0.902853E+00
     0.084   0.131032E+01   0.894445E+00
     0.085   0.132397E+01   0.884195E+00
     0.086   0.133265E+01   0.874829E+00
     0.087   0.133677E+01   0.867714E+00
     0.088   0.133618E+01   0.865698E+00
     0.089   0.133482E+01   0.872259E+00
     0.090   0.133778E+01   0.885643E+00
     0.091   0.134634E+01   0.902405E+00
     0.092   0.136104E+01   0.921014E+00
     0.093   0.138343E+01   0.938514E+00
     0.094   0.141111E+01   0.950077E+00
     0.095   0.143950E+01   0.955537E+00
     0.096   0.146690E+01   0.957214E+00
     0.097   0.149308E+01   0.955937E+00
     0.098   0.151686E+01   0.952264E+00
     0.099   0.153750E+01   0.949063E+00
     0.100   0.155801E+01   0.948655E+00
     0.105   0.169865E+01   0.921288E+00
     0.110   0.176877E+01   0.804440E+00
     0.115   0.178098E+01   0.766459E+00
     0.120   0.183846E+01   0.738577E+00
     0.125   0.187041E+01   0.675741E+00
     0.130   0.189102E+01   0.650857E+00
     0.135   0.191499E+01   0.613317E+00
     0.140   0.190759E+01   0.619469E+00
     0.145   0.202954E+01   0.696348E+00
     0.150   0.222967E+01   0.573084E+00
     0.155   0.223734E+01   0.331655E+00
     0.160   0.213466E+01   0.209397E+00
     0.165   0.206379E+01   0.196448E+00
     0.170   0.204288E+01   0.175189E+00
     0.175   0.202089E+01   0.139308E+00
     0.180   0.199359E+01   0.111401E+00
     0.185   0.196701E+01   0.877461E-01
     0.190   0.194006E+01   0.700363E-01
     0.195   0.191578E+01   0.578943E-01
     0.200   0.189451E+01   0.485274E-01
     0.205   0.187538E+01   0.411759E-01
     0.210   0.185800E+01   0.353842E-01
     0.215   0.184200E+01   0.309735E-01
     0.220   0.182716E+01   0.280064E-01
     0.225   0.181378E+01   0.266071E-01
     0.230   0.180220E+01   0.262667E-01
     0.235   0.179227E+01   0.264090E-01
     0.240   0.178370E+01   0.267208E-01
     0.245   0.177616E+01   0.271183E-01
     0.250   0.176956E+01   0.276031E-01
     0.255   0.176382E+01   0.280330E-01
     0.260   0.175876E+01   0.283157E-01
     0.265   0.175420E+01   0.283605E-01
     0.270   0.174994E+01   0.282702E-01
     0.275   0.174587E+01   0.281397E-01
     0.280   0.174203E+01   0.281123E-01
     0.285   0.173848E+01   0.281594E-01
     0.290   0.173523E+01   0.282610E-01
     0.295   0.173226E+01   0.283580E-01
     0.300   0.172950E+01   0.284438E-01
     0.305   0.172695E+01   0.285187E-01
     0.310   0.172458E+01   0.285801E-01
     0.315   0.172237E+01   0.286292E-01
     0.320   0.172031E+01   0.286649E-01
     0.325   0.171837E+01   0.286906E-01
     0.330   0.171653E+01   0.287132E-01
     0.335   0.171481E+01   0.287343E-01
     0.340   0.171319E+01   0.287550E-01
     0.345   0.171165E+01   0.287764E-01
     0.350   0.171021E+01   0.287984E-01
     0.355   0.170885E+01   0.288218E-01
     0.360   0.170755E+01   0.288468E-01
     0.365   0.170634E+01   0.288730E-01
     0.370   0.170519E+01   0.288996E-01
     0.375   0.170410E+01   0.289263E-01
     0.380   0.170307E+01   0.289525E-01
     0.385   0.170209E+01   0.289776E-01
     0.390   0.170117E+01   0.290010E-01
     0.395   0.170030E+01   0.290224E-01
     0.400   0.169946E+01   0.290416E-01
     0.405   0.169868E+01   0.290584E-01
     0.410   0.169792E+01   0.290730E-01
     0.415   0.169721E+01   0.290855E-01
     0.420   0.169653E+01   0.290962E-01
     0.425   0.169587E+01   0.291056E-01
     0.430   0.169525E+01   0.291141E-01
     0.435   0.169466E+01   0.291224E-01
     0.440   0.169410E+01   0.291310E-01
     0.445   0.169355E+01   0.291398E-01
     0.450   0.169303E+01   0.291489E-01
     0.455   0.169253E+01   0.291583E-01
     0.460   0.169206E+01   0.291680E-01
     0.465   0.169160E+01   0.291778E-01
     0.470   0.169117E+01   0.291878E-01
     0.475   0.169076E+01   0.291981E-01
     0.480   0.169036E+01   0.292086E-01
     0.485   0.168997E+01   0.292192E-01
     0.490   0.168961E+01   0.292300E-01
     0.495   0.168926E+01   0.292408E-01
     0.500   0.168892E+01   0.292516E-01
     0.505   0.168861E+01   0.292626E-01
     0.510   0.168829E+01   0.292736E-01
     0.515   0.168800E+01   0.292847E-01
     0.520   0.168772E+01   0.292958E-01
     0.525   0.168745E+01   0.293070E-01
     0.530   0.168719E+01   0.293182E-01
     0.535   0.168694E+01   0.293293E-01
     0.540   0.168670E+01   0.293404E-01
     0.545   0.168647E+01   0.293514E-01
     0.550   0.168625E+01   0.293623E-01
     0.555   0.168604E+01   0.293731E-01
     0.560   0.168584E+01   0.293838E-01
     0.565   0.168565E+01   0.293944E-01
     0.570   0.168546E+01   0.294050E-01
     0.575   0.168527E+01   0.294155E-01
     0.580   0.168511E+01   0.294259E-01
     0.585   0.168494E+01   0.294364E-01
     0.590   0.168478E+01   0.294468E-01
     0.595   0.168462E+01   0.294571E-01
     0.600   0.168448E+01   0.294675E-01
     0.605   0.168434E+01   0.294778E-01
     0.610   0.168421E+01   0.294881E-01
     0.615   0.168408E+01   0.294984E-01
     0.620   0.168395E+01   0.295087E-01
     0.625   0.168383E+01   0.295189E-01
     0.630   0.168371E+01   0.295292E-01
     0.635   0.168360E+01   0.295393E-01
     0.640   0.168349E+01   0.295495E-01
     0.645   0.168339E+01   0.295597E-01
     0.650   0.168330E+01   0.295698E-01
     0.655   0.168321E+01   0.295799E-01
     0.660   0.168311E+01   0.295902E-01
     0.665   0.168302E+01   0.296003E-01
     0.670   0.168293E+01   0.296105E-01
     0.675   0.168285E+01   0.296207E-01
     0.680   0.168278E+01   0.296310E-01
     0.685   0.168270E+01   0.296414E-01
     0.690   0.168263E+01   0.296517E-01
     0.695   0.168256E+01   0.296621E-01
     0.700   0.168250E+01   0.296727E-01
     0.705   0.168243E+01   0.296833E-01
     0.710   0.168238E+01   0.296940E-01
     0.715   0.168232E+01   0.297047E-01
     0.720   0.168226E+01   0.297156E-01
     0.725   0.168221E+01   0.297265E-01
     0.730   0.168216E+01   0.297374E-01
     0.735   0.168211E+01   0.297484E-01
     0.740   0.168206E+01   0.297595E-01
     0.745   0.168201E+01   0.297706E-01
     0.750   0.168197E+01   0.297818E-01
     0.755   0.168193E+01   0.297929E-01
     0.760   0.168190E+01   0.298041E-01
     0.765   0.168186E+01   0.298153E-01
     0.770   0.168182E+01   0.298265E-01
     0.775   0.168178E+01   0.298376E-01
     0.780   0.168175E+01   0.298487E-01
     0.785   0.168172E+01   0.298599E-01
     0.790   0.168169E+01   0.298710E-01
     0.795   0.168167E+01   0.298820E-01
     0.800   0.168164E+01   0.298929E-01
     0.805   0.168161E+01   0.299039E-01
     0.810   0.168158E+01   0.299147E-01
     0.815   0.168156E+01   0.299255E-01
     0.820   0.168154E+01   0.299362E-01
     0.825   0.168153E+01   0.299468E-01
     0.830   0.168150E+01   0.299575E-01
     0.835   0.168148E+01   0.299680E-01
     0.840   0.168147E+01   0.299785E-01
     0.845   0.168145E+01   0.299889E-01
     0.850   0.168143E+01   0.299993E-01
     0.855   0.168142E+01   0.300097E-01
     0.860   0.168140E+01   0.300201E-01
     0.865   0.168139E+01   0.300305E-01
     0.870   0.168138E+01   0.300410E-01
     0.875   0.168137E+01   0.300514E-01
     0.880   0.168136E+01   0.300617E-01
     0.885   0.168135E+01   0.300720E-01
     0.890   0.168134E+01   0.300824E-01
     0.895   0.168133E+01   0.300928E-01
     0.900   0.168131E+01   0.301031E-01
     0.905   0.168130E+01   0.301134E-01
     0.910   0.168130E+01   0.301236E-01
     0.915   0.168129E+01   0.301338E-01
     0.920   0.168129E+01   0.301440E-01
     0.925   0.168128E+01   0.301541E-01
     0.930   0.168128E+01   0.301641E-01
     0.935   0.168127E+01   0.301741E-01
     0.940   0.168127E+01   0.301840E-01
     0.945   0.168126E+01   0.301937E-01
     0.950   0.168126E+01   0.302034E-01
     0.955   0.168126E+01   0.302129E-01
     0.960   0.168126E+01   0.302224E-01
     0.965   0.168126E+01   0.302317E-01
     0.970   0.168126E+01   0.302408E-01
     0.975   0.168125E+01   0.302498E-01
     0.980   0.168125E+01   0.302587E-01
     0.985   0.168125E+01   0.302673E-01
     0.990   0.168125E+01   0.302759E-01
     0.995   0.168125E+01   0.302843E-01
     1.000   0.168125E+01   0.302926E-01
     1.005   0.168125E+01   0.303008E-01
     1.055   0.168125E+01   0.303769E-01
     1.105   0.168124E+01   0.304500E-01
     1.155   0.168122E+01   0.305314E-01
     1.205   0.168117E+01   0.306296E-01
     1.255   0.168112E+01   0.307491E-01
     1.305   0.168106E+01   0.308891E-01
     1.355   0.168099E+01   0.310443E-01
     1.405   0.168092E+01   0.312060E-01
     1.455   0.168085E+01   0.313667E-01
     1.505   0.168076E+01   0.315216E-01
     1.555   0.168065E+01   0.316698E-01
     1.605   0.168052E+01   0.318149E-01
     1.655   0.168035E+01   0.319632E-01
     1.705   0.168017E+01   0.321173E-01
     1.755   0.167995E+01   0.322784E-01
     1.805   0.167971E+01   0.324462E-01
     1.855   0.167946E+01   0.326194E-01
     1.905   0.167918E+01   0.327981E-01
     1.955   0.167888E+01   0.329822E-01
     2.005   0.167856E+01   0.331713E-01
     2.055   0.167822E+01   0.333647E-01
     2.105   0.167786E+01   0.335609E-01
     2.155   0.167748E+01   0.337575E-01
     2.205   0.167709E+01   0.339532E-01
     2.255   0.167667E+01   0.341476E-01
     2.305   0.167624E+01   0.343409E-01
     2.355   0.167578E+01   0.345337E-01
     2.405   0.167529E+01   0.347268E-01
     2.455   0.167478E+01   0.349211E-01
     2.505   0.167425E+01   0.351170E-01
     2.555   0.167368E+01   0.353150E-01
     2.605   0.167311E+01   0.355156E-01
     2.655   0.167250E+01   0.357192E-01
     2.705   0.167187E+01   0.359263E-01
     2.755   0.167122E+01   0.361372E-01
     2.805   0.167055E+01   0.363521E-01
     2.855   0.166985E+01   0.365714E-01
     2.905   0.166913E+01   0.367951E-01
     2.955   0.166840E+01   0.370235E-01
     3.005   0.166764E+01   0.372567E-01
     3.055   0.166686E+01   0.374944E-01
     3.105   0.166608E+01   0.377352E-01
     3.155   0.166527E+01   0.379776E-01
     3.205   0.166445E+01   0.382198E-01
     3.255   0.166362E+01   0.384602E-01
     3.305   0.166277E+01   0.386973E-01
     3.355   0.166189E+01   0.389300E-01
     3.405   0.166100E+01   0.391571E-01
     3.455   0.166010E+01   0.393777E-01
     3.505   0.165918E+01   0.395901E-01
     3.555   0.165823E+01   0.397936E-01
     3.605   0.165727E+01   0.399872E-01
     3.655   0.165628E+01   0.401699E-01
     3.705   0.165527E+01   0.403406E-01
     3.755   0.165423E+01   0.404986E-01
     3.805   0.165316E+01   0.406436E-01
     3.855   0.165207E+01   0.407745E-01
     3.905   0.165094E+01   0.408907E-01
     3.955   0.164978E+01   0.409920E-01
     4.005   0.164857E+01   0.410782E-01
     4.055   0.164733E+01   0.411502E-01
     4.105   0.164604E+01   0.412117E-01
     4.155   0.164469E+01   0.412658E-01
     4.205   0.164331E+01   0.413165E-01
     4.255   0.164186E+01   0.413688E-01
     4.305   0.164036E+01   0.414254E-01
     4.355   0.163881E+01   0.414887E-01
     4.405   0.163722E+01   0.415619E-01
     4.455   0.163556E+01   0.416475E-01
     4.505   0.163387E+01   0.417479E-01
     4.555   0.163212E+01   0.418659E-01
     4.605   0.163033E+01   0.420043E-01
     4.655   0.162849E+01   0.421656E-01
     4.705   0.162661E+01   0.423521E-01
     4.755   0.162469E+01   0.425647E-01
     4.805   0.162273E+01   0.428057E-01
     4.855   0.162074E+01   0.430778E-01
     4.905   0.161871E+01   0.433824E-01
     4.955   0.161666E+01   0.437202E-01
     5.005   0.161458E+01   0.440913E-01
     5.055   0.161250E+01   0.444979E-01
     5.105   0.161040E+01   0.449334E-01
     5.155   0.160830E+01   0.453916E-01
     5.205   0.160620E+01   0.458672E-01
     5.255   0.160411E+01   0.463537E-01
     5.305   0.160202E+01   0.468419E-01
     5.355   0.159993E+01   0.473233E-01
     5.405   0.159784E+01   0.477931E-01
     5.455   0.159575E+01   0.482455E-01
     5.505   0.159366E+01   0.486740E-01
     5.555   0.159155E+01   0.490710E-01
     5.605   0.158943E+01   0.494343E-01
     5.655   0.158730E+01   0.497604E-01
     5.705   0.158513E+01   0.500410E-01
     5.755   0.158294E+01   0.502664E-01
     5.805   0.158071E+01   0.504325E-01
     5.855   0.157843E+01   0.505370E-01
     5.905   0.157608E+01   0.505757E-01
     5.955   0.157366E+01   0.505425E-01
     6.005   0.157114E+01   0.504382E-01
     6.055   0.156850E+01   0.502811E-01
     6.105   0.156573E+01   0.500837E-01
     6.155   0.156282E+01   0.498589E-01
     6.205   0.155976E+01   0.496215E-01
     6.255   0.155656E+01   0.493882E-01
     6.305   0.155321E+01   0.491854E-01
     6.355   0.154972E+01   0.490290E-01
     6.405   0.154610E+01   0.489275E-01
     6.455   0.154236E+01   0.488926E-01
     6.505   0.153850E+01   0.489392E-01
     6.555   0.153454E+01   0.490838E-01
     6.605   0.153051E+01   0.493394E-01
     6.655   0.152642E+01   0.497002E-01
     6.705   0.152236E+01   0.502541E-01
     6.755   0.151845E+01   0.509064E-01
     6.805   0.151480E+01   0.513013E-01
     6.855   0.151100E+01   0.513869E-01
     6.905   0.150684E+01   0.513247E-01
     6.955   0.150251E+01   0.513270E-01
     7.005   0.149803E+01   0.513730E-01
     7.055   0.149339E+01   0.514278E-01
     7.105   0.148862E+01   0.515059E-01
     7.155   0.148370E+01   0.516059E-01
     7.205   0.147864E+01   0.517278E-01
     7.255   0.147344E+01   0.518715E-01
     7.305   0.146808E+01   0.520371E-01
     7.355   0.146258E+01   0.522246E-01
     7.405   0.145692E+01   0.524340E-01
     7.455   0.145111E+01   0.526651E-01
     7.505   0.144513E+01   0.529182E-01
     7.555   0.143897E+01   0.531932E-01
     7.605   0.143263E+01   0.534900E-01
     7.655   0.142610E+01   0.538087E-01
     7.705   0.141938E+01   0.541493E-01
     7.755   0.141245E+01   0.545117E-01
     7.805   0.140530E+01   0.548960E-01
     7.855   0.139792E+01   0.553022E-01
     7.905   0.139029E+01   0.557302E-01
     7.955   0.138240E+01   0.561801E-01
     8.005   0.137424E+01   0.566519E-01
     8.055   0.136578E+01   0.571455E-01
     8.105   0.135701E+01   0.576610E-01
     8.155   0.134789E+01   0.581984E-01
     8.205   0.133841E+01   0.587577E-01
     8.255   0.132854E+01   0.593389E-01
     8.305   0.131823E+01   0.599419E-01
     8.355   0.130743E+01   0.605667E-01
     8.405   0.129612E+01   0.612132E-01
     8.455   0.128423E+01   0.618820E-01
     8.505   0.127170E+01   0.625746E-01
     8.555   0.125839E+01   0.632801E-01
     8.605   0.124417E+01   0.639892E-01
     8.655   0.122929E+01   0.648973E-01
     8.705   0.121325E+01   0.659111E-01
     8.755   0.119423E+01   0.662287E-01
     8.805   0.117211E+01   0.670745E-01
     8.855   0.114907E+01   0.719603E-01
     8.905   0.112637E+01   0.811781E-01
     8.955   0.110403E+01   0.918535E-01
     9.005   0.108220E+01   0.103105E+00
     9.055   0.106102E+01   0.115539E+00
     9.105   0.104053E+01   0.128549E+00
     9.155   0.102046E+01   0.141028E+00
     9.205   0.999632E+00   0.152325E+00
     9.255   0.976406E+00   0.162357E+00
     9.305   0.949362E+00   0.172178E+00
     9.355   0.917403E+00   0.183620E+00
     9.405   0.880121E+00   0.198517E+00
     9.455   0.837800E+00   0.219008E+00
     9.505   0.790784E+00   0.247673E+00
     9.555   0.740340E+00   0.287091E+00
     9.605   0.689962E+00   0.340446E+00
     9.655   0.644289E+00   0.409995E+00
     9.705   0.608617E+00   0.494071E+00
     9.755   0.587930E+00   0.588878E+00
     9.805   0.584138E+00   0.690524E+00
     9.855   0.597756E+00   0.795067E+00
     9.905   0.630038E+00   0.900788E+00
     9.955   0.682587E+00   0.100589E+01
    10.005   0.761010E+00   0.110415E+01
    10.055   0.871888E+00   0.118536E+01
    10.105   0.100957E+01   0.123254E+01
    10.155   0.115331E+01   0.122334E+01
    10.205   0.127726E+01   0.115199E+01
    10.255   0.135176E+01   0.104449E+01
    10.305   0.135898E+01   0.932663E+00
    10.355   0.132840E+01   0.851198E+00
    10.405   0.129544E+01   0.826633E+00
    10.455   0.126773E+01   0.823212E+00
    10.505   0.124216E+01   0.790324E+00
    10.555   0.120381E+01   0.733996E+00
    10.605   0.113370E+01   0.700419E+00
    10.655   0.103273E+01   0.718533E+00
    10.705   0.932049E+00   0.780500E+00
    10.755   0.861879E+00   0.872873E+00
    10.805   0.822121E+00   0.984813E+00
    10.855   0.807598E+00   0.110223E+01
    10.905   0.816546E+00   0.121660E+01
    10.955   0.845735E+00   0.132375E+01
    11.005   0.888156E+00   0.142088E+01
    11.055   0.934734E+00   0.150661E+01
    11.105   0.979086E+00   0.158433E+01
    11.155   0.102038E+01   0.166694E+01
    11.205   0.106323E+01   0.176704E+01
    11.255   0.111855E+01   0.189125E+01
    11.305   0.120085E+01   0.203836E+01
    11.355   0.132928E+01   0.219928E+01
    11.405   0.152594E+01   0.235706E+01
    11.455   0.180204E+01   0.249095E+01
    11.505   0.213500E+01   0.254416E+01
    11.555   0.248940E+01   0.246745E+01
    11.605   0.281383E+01   0.225675E+01
    11.655   0.305271E+01   0.195794E+01
    11.705   0.316345E+01   0.163055E+01
    11.755   0.315863E+01   0.132372E+01
    11.805   0.306628E+01   0.108116E+01
    11.855   0.294345E+01   0.920091E+00
    11.905   0.285663E+01   0.829064E+00
    11.955   0.286915E+01   0.786441E+00
    12.005   0.291348E+01   0.743594E+00
    12.055   0.291444E+01   0.654976E+00
    12.105   0.283922E+01   0.516653E+00
    12.155   0.273068E+01   0.379735E+00
    12.205   0.263945E+01   0.303104E+00
    12.255   0.256666E+01   0.273040E+00
    12.305   0.250632E+01   0.261947E+00
    12.355   0.245025E+01   0.242723E+00
    12.405   0.240024E+01   0.221927E+00
    12.455   0.235480E+01   0.204260E+00
    12.505   0.231288E+01   0.190860E+00
    12.555   0.227385E+01   0.179722E+00
    12.605   0.223773E+01   0.169846E+00
    12.655   0.220398E+01   0.161243E+00
    12.705   0.217227E+01   0.153723E+00
    12.755   0.214233E+01   0.147088E+00
    12.805   0.211398E+01   0.141237E+00
    12.855   0.208703E+01   0.136074E+00
    12.905   0.206135E+01   0.131520E+00
    12.955   0.203679E+01   0.127501E+00
    13.005   0.201323E+01   0.123957E+00
    13.055   0.199057E+01   0.120836E+00
    13.105   0.196873E+01   0.118095E+00
    13.155   0.194762E+01   0.115698E+00
    13.205   0.192716E+01   0.113613E+00
    13.255   0.190729E+01   0.111816E+00
    13.305   0.188794E+01   0.110285E+00
    13.355   0.186907E+01   0.109004E+00
    13.405   0.185063E+01   0.107956E+00
    13.455   0.183258E+01   0.107130E+00
    13.505   0.181488E+01   0.106516E+00
    13.555   0.179748E+01   0.106106E+00
    13.605   0.178036E+01   0.105896E+00
    13.655   0.176347E+01   0.105882E+00
    13.705   0.174679E+01   0.106064E+00
    13.755   0.173028E+01   0.106443E+00
    13.805   0.171392E+01   0.107023E+00
    13.855   0.169768E+01   0.107811E+00
    13.905   0.168155E+01   0.108814E+00
    13.955   0.166549E+01   0.110046E+00
    14.005   0.164951E+01   0.111523E+00
    14.055   0.163357E+01   0.113264E+00
    14.105   0.161768E+01   0.115291E+00
    14.155   0.160183E+01   0.117629E+00
    14.205   0.158604E+01   0.120312E+00
    14.255   0.157032E+01   0.123377E+00
    14.305   0.155471E+01   0.126841E+00
    14.355   0.153927E+01   0.130720E+00
    14.405   0.152412E+01   0.135012E+00
    14.455   0.150934E+01   0.139685E+00
    14.505   0.149500E+01   0.144601E+00
    14.555   0.148113E+01   0.149529E+00
    14.605   0.146773E+01   0.154244E+00
    14.655   0.145464E+01   0.158554E+00
    14.705   0.144157E+01   0.162342E+00
    14.755   0.142819E+01   0.165549E+00
    14.805   0.141420E+01   0.168224E+00
    14.855   0.139943E+01   0.170641E+00
    14.905   0.138376E+01   0.173090E+00
    14.955   0.136710E+01   0.175906E+00
    15.005   0.134951E+01   0.179235E+00
    15.055   0.133107E+01   0.183240E+00
    15.105   0.131190E+01   0.188042E+00
    15.155   0.129203E+01   0.193745E+00
    15.205   0.127150E+01   0.200432E+00
    15.255   0.125032E+01   0.208175E+00
    15.305   0.122852E+01   0.217073E+00
    15.355   0.120611E+01   0.227247E+00
    15.405   0.118313E+01   0.238849E+00
    15.455   0.115959E+01   0.252064E+00
    15.505   0.113554E+01   0.267106E+00
    15.555   0.111104E+01   0.284238E+00
    15.605   0.108626E+01   0.303759E+00
    15.655   0.106138E+01   0.326042E+00
    15.705   0.103671E+01   0.351467E+00
    15.755   0.101266E+01   0.380376E+00
    15.805   0.989865E+00   0.413130E+00
    15.855   0.969091E+00   0.450001E+00
    15.905   0.951235E+00   0.491116E+00
    15.955   0.937293E+00   0.536385E+00
    16.005   0.928304E+00   0.585422E+00
    16.055   0.925343E+00   0.637587E+00
    16.105   0.929353E+00   0.691765E+00
    16.155   0.941464E+00   0.747003E+00
    16.205   0.962501E+00   0.801830E+00
    16.255   0.992800E+00   0.854691E+00
    16.305   0.103246E+01   0.903072E+00
    16.355   0.108118E+01   0.943708E+00
    16.405   0.113775E+01   0.973734E+00
    16.455   0.120109E+01   0.990625E+00
    16.505   0.126626E+01   0.992916E+00
    16.555   0.132898E+01   0.980064E+00
    16.605   0.138453E+01   0.952040E+00
    16.655   0.142963E+01   0.911219E+00
    16.705   0.146274E+01   0.862137E+00
    16.755   0.148290E+01   0.809133E+00
    16.805   0.148974E+01   0.757677E+00
    16.855   0.148505E+01   0.709350E+00
    16.905   0.147095E+01   0.665939E+00
    16.955   0.145011E+01   0.628497E+00
    17.005   0.142496E+01   0.597413E+00
    17.055   0.139641E+01   0.572651E+00
    17.105   0.136563E+01   0.553742E+00
    17.155   0.133333E+01   0.539745E+00
    17.205   0.130024E+01   0.530252E+00
    17.255   0.126688E+01   0.524943E+00
    17.305   0.123355E+01   0.523456E+00
    17.355   0.120037E+01   0.525551E+00
    17.405   0.116761E+01   0.530924E+00
    17.455   0.113543E+01   0.539379E+00
    17.505   0.110398E+01   0.550780E+00
    17.555   0.107339E+01   0.565015E+00
    17.605   0.104385E+01   0.581945E+00
    17.655   0.101552E+01   0.601453E+00
    17.705   0.988607E+00   0.623429E+00
    17.755   0.963286E+00   0.647726E+00
    17.805   0.939731E+00   0.674170E+00
    17.855   0.918110E+00   0.702571E+00
    17.905   0.898584E+00   0.732728E+00
    17.955   0.881260E+00   0.764403E+00
    18.005   0.866222E+00   0.797347E+00
    18.055   0.853531E+00   0.831311E+00
    18.105   0.843231E+00   0.866023E+00
    18.155   0.835320E+00   0.901290E+00
    18.205   0.829786E+00   0.936905E+00
    18.255   0.826599E+00   0.972674E+00
    18.305   0.825700E+00   0.100840E+01
    18.355   0.827079E+00   0.104391E+01
    18.405   0.830695E+00   0.107900E+01
    18.455   0.836488E+00   0.111351E+01
    18.505   0.844368E+00   0.114725E+01
    18.555   0.854257E+00   0.117996E+01
    18.605   0.866027E+00   0.121143E+01
    18.655   0.879519E+00   0.124145E+01
    18.705   0.894554E+00   0.126987E+01
    18.755   0.910783E+00   0.129649E+01
    18.805   0.927879E+00   0.132122E+01
    18.855   0.945507E+00   0.134402E+01
    18.905   0.963351E+00   0.136489E+01
    18.955   0.981091E+00   0.138414E+01
    19.005   0.998481E+00   0.140208E+01
    19.055   0.101534E+01   0.141905E+01
    19.105   0.103152E+01   0.143542E+01
    19.155   0.104722E+01   0.145152E+01
    19.205   0.106263E+01   0.146764E+01
    19.255   0.107803E+01   0.148404E+01
    19.305   0.109377E+01   0.150094E+01
    19.355   0.111010E+01   0.151825E+01
    19.405   0.112735E+01   0.153586E+01
    19.455   0.114578E+01   0.155358E+01
    19.505   0.116567E+01   0.157112E+01
    19.555   0.118713E+01   0.158822E+01
    19.605   0.121023E+01   0.160457E+01
    19.655   0.123499E+01   0.161983E+01
    19.705   0.126134E+01   0.163365E+01
    19.755   0.128916E+01   0.164571E+01
    19.805   0.131830E+01   0.165569E+01
    19.855   0.134853E+01   0.166334E+01
    19.905   0.137958E+01   0.166841E+01
    19.955   0.141114E+01   0.167071E+01
    20.005   0.144285E+01   0.167007E+01
    20.055   0.147432E+01   0.166642E+01
    20.105   0.150517E+01   0.165971E+01
    20.155   0.153500E+01   0.165000E+01
    20.205   0.156339E+01   0.163740E+01
    20.255   0.158995E+01   0.162209E+01
    20.305   0.161433E+01   0.160434E+01
    20.355   0.163625E+01   0.158440E+01
    20.405   0.165544E+01   0.156271E+01
    20.455   0.167172E+01   0.153970E+01
    20.505   0.168499E+01   0.151582E+01
    20.555   0.169510E+01   0.149150E+01
    20.605   0.170219E+01   0.146713E+01
    20.655   0.170661E+01   0.144305E+01
    20.705   0.170863E+01   0.141951E+01
    20.755   0.170855E+01   0.139677E+01
    20.805   0.170682E+01   0.137519E+01
    20.855   0.170312E+01   0.135440E+01
    20.905   0.169735E+01   0.133431E+01
    20.955   0.168944E+01   0.131486E+01
    21.005   0.167918E+01   0.129564E+01
    21.055   0.166663E+01   0.127718E+01
    21.105   0.165189E+01   0.126022E+01
    21.155   0.163516E+01   0.124534E+01
    21.205   0.161665E+01   0.123316E+01
    21.255   0.159663E+01   0.122443E+01
    21.305   0.157574E+01   0.121895E+01
    21.355   0.155454E+01   0.121672E+01
    21.405   0.153364E+01   0.121762E+01
    21.455   0.151361E+01   0.122129E+01
    21.505   0.149503E+01   0.122739E+01
    21.555   0.147837E+01   0.123557E+01
    21.605   0.146402E+01   0.124528E+01
    21.655   0.145216E+01   0.125592E+01
    21.705   0.144310E+01   0.126729E+01
    21.755   0.143629E+01   0.127806E+01
    21.805   0.143127E+01   0.128743E+01
    21.855   0.142743E+01   0.129469E+01
    21.905   0.142412E+01   0.129905E+01
    21.955   0.142061E+01   0.130015E+01
    22.005   0.141590E+01   0.129893E+01
    22.055   0.140921E+01   0.129605E+01
    22.105   0.139990E+01   0.129232E+01
    22.155   0.138701E+01   0.128886E+01
    22.205   0.137075E+01   0.128642E+01
    22.255   0.135173E+01   0.128561E+01
    22.305   0.133047E+01   0.128710E+01
    22.355   0.130764E+01   0.129137E+01
    22.405   0.128435E+01   0.129912E+01
    22.455   0.126080E+01   0.131011E+01
    22.505   0.123743E+01   0.132418E+01
    22.555   0.121466E+01   0.134107E+01
    22.605   0.119284E+01   0.136041E+01
    22.655   0.117231E+01   0.138159E+01
    22.705   0.115319E+01   0.140461E+01
    22.755   0.113556E+01   0.142923E+01
    22.805   0.111948E+01   0.145519E+01
    22.855   0.110492E+01   0.148230E+01
    22.905   0.109178E+01   0.151036E+01
    22.955   0.108014E+01   0.153922E+01
    23.005   0.106995E+01   0.156873E+01
    23.055   0.106117E+01   0.159879E+01
    23.105   0.105376E+01   0.162932E+01
    23.155   0.104767E+01   0.166025E+01
    23.205   0.104286E+01   0.169150E+01
    23.255   0.103928E+01   0.172299E+01
    23.305   0.103690E+01   0.175469E+01
    23.355   0.103568E+01   0.178656E+01
    23.405   0.103560E+01   0.181855E+01
    23.455   0.103661E+01   0.185065E+01
    23.505   0.103870E+01   0.188283E+01
    23.555   0.104184E+01   0.191508E+01
    23.605   0.104602E+01   0.194738E+01
    23.655   0.105121E+01   0.197972E+01
    23.705   0.105741E+01   0.201207E+01
    23.755   0.106461E+01   0.204444E+01
    23.805   0.107281E+01   0.207680E+01
    23.855   0.108200E+01   0.210914E+01
    23.905   0.109219E+01   0.214145E+01
    23.955   0.110337E+01   0.217371E+01
    24.005   0.111556E+01   0.220592E+01
    24.055   0.112876E+01   0.223804E+01
    24.105   0.114299E+01   0.227008E+01
    24.155   0.115825E+01   0.230200E+01
    24.205   0.117457E+01   0.233379E+01
    24.255   0.119196E+01   0.236543E+01
    24.305   0.121044E+01   0.239689E+01
    24.355   0.123003E+01   0.242814E+01
    24.405   0.125076E+01   0.245916E+01
    24.455   0.127265E+01   0.248991E+01
    24.505   0.129572E+01   0.252033E+01
    24.555   0.131998E+01   0.255040E+01
    24.605   0.134547E+01   0.258005E+01
    24.655   0.137220E+01   0.260922E+01
    24.705   0.140020E+01   0.263786E+01
    24.755   0.142948E+01   0.266590E+01
    24.805   0.146006E+01   0.269328E+01
    24.855   0.149195E+01   0.271992E+01
    24.905   0.152515E+01   0.274575E+01
    24.955   0.155967E+01   0.277066E+01
    25.005   0.159553E+01   0.279456E+01
    25.505   0.202094E+01   0.295194E+01
    26.005   0.249016E+01   0.288343E+01
    26.505   0.280699E+01   0.258468E+01
    27.005   0.283521E+01   0.225423E+01
    27.505   0.264478E+01   0.213118E+01
    28.005   0.241020E+01   0.243287E+01
    28.505   0.299666E+01   0.316810E+01
    29.005   0.416440E+01   0.269884E+01
    29.505   0.422915E+01   0.148121E+01
    30.005   0.375257E+01   0.102354E+01
    30.505   0.334865E+01   0.837384E+00
    31.005   0.301712E+01   0.796703E+00
    31.505   0.273251E+01   0.824383E+00
    32.005   0.247754E+01   0.910349E+00
    32.505   0.224412E+01   0.105895E+01
    33.005   0.204518E+01   0.128025E+01
    33.505   0.190612E+01   0.157443E+01
    34.005   0.185280E+01   0.192423E+01
    34.505   0.189975E+01   0.230543E+01
    35.005   0.205714E+01   0.269737E+01
    35.505   0.234211E+01   0.307686E+01
    36.005   0.277832E+01   0.339850E+01
    36.505   0.336492E+01   0.357781E+01
    37.005   0.404138E+01   0.350321E+01
    37.505   0.460886E+01   0.311960E+01
    38.005   0.493795E+01   0.260332E+01
    38.505   0.503294E+01   0.210495E+01
    39.005   0.498922E+01   0.169661E+01
    39.505   0.488078E+01   0.139771E+01
    40.005   0.475144E+01   0.118119E+01
    40.505   0.462381E+01   0.102349E+01
    41.005   0.450679E+01   0.908351E+00
    41.505   0.440148E+01   0.825520E+00
    42.005   0.430977E+01   0.764011E+00
    42.505   0.422999E+01   0.717808E+00
    43.005   0.416113E+01   0.682667E+00
    43.505   0.410181E+01   0.655470E+00
    44.005   0.405092E+01   0.633966E+00
    44.505   0.400731E+01   0.616453E+00
    45.005   0.396999E+01   0.601663E+00
    45.505   0.393804E+01   0.588643E+00
    46.005   0.391061E+01   0.576690E+00
    46.505   0.388698E+01   0.565296E+00
    47.005   0.386644E+01   0.554110E+00
    47.505   0.384844E+01   0.542908E+00
    48.005   0.383246E+01   0.531564E+00
    48.505   0.381806E+01   0.520025E+00
    49.005   0.380490E+01   0.508289E+00
    49.505   0.379267E+01   0.496392E+00
    50.005   0.378115E+01   0.484394E+00
    50.505   0.377018E+01   0.472361E+00
    51.005   0.375959E+01   0.460370E+00
    51.505   0.374929E+01   0.448489E+00
    52.005   0.373923E+01   0.436783E+00
    52.505   0.372935E+01   0.425309E+00
    53.005   0.371960E+01   0.414112E+00
    53.505   0.370999E+01   0.403230E+00
    54.005   0.370050E+01   0.392692E+00
    54.505   0.369113E+01   0.382518E+00
    55.005   0.368189E+01   0.372721E+00
    55.505   0.367278E+01   0.363309E+00
    56.005   0.366381E+01   0.354281E+00
    56.505   0.365498E+01   0.345638E+00
    57.005   0.364631E+01   0.337370E+00
    57.505   0.363780E+01   0.329472E+00
    58.005   0.362946E+01   0.321933E+00
    58.505   0.362129E+01   0.314738E+00
    59.005   0.361330E+01   0.307877E+00
    59.505   0.360548E+01   0.301335E+00
    60.005   0.359786E+01   0.295099E+00
    60.505   0.359041E+01   0.289153E+00
    61.005   0.358315E+01   0.283484E+00
    61.505   0.357607E+01   0.278078E+00
    62.005   0.356918E+01   0.272922E+00
    62.505   0.356247E+01   0.268002E+00
    63.005   0.355594E+01   0.263306E+00
    63.505   0.354959E+01   0.258821E+00
    64.005   0.354341E+01   0.254536E+00
    64.505   0.353742E+01   0.250440E+00
    65.005   0.353158E+01   0.246522E+00
    65.505   0.352591E+01   0.242772E+00
    66.005   0.352040E+01   0.239181E+00
    66.505   0.351505E+01   0.235739E+00
    67.005   0.350985E+01   0.232440E+00
    67.505   0.350480E+01   0.229274E+00
    68.005   0.349990E+01   0.226233E+00
    68.505   0.349514E+01   0.223312E+00
    69.005   0.349052E+01   0.220501E+00
    69.505   0.348602E+01   0.217796E+00
    70.005   0.348166E+01   0.215192E+00
    70.505   0.347743E+01   0.212683E+00
    71.005   0.347331E+01   0.210263E+00
    71.505   0.346932E+01   0.207925E+00
    72.005   0.346544E+01   0.205669E+00
    72.505   0.346167E+01   0.203488E+00
    73.005   0.345801E+01   0.201376E+00
    73.505   0.345445E+01   0.199333E+00
    74.005   0.345099E+01   0.197355E+00
    74.505   0.344763E+01   0.195434E+00
    75.005   0.344436E+01   0.193571E+00
    75.505   0.344119E+01   0.191764E+00
    76.005   0.343810E+01   0.190007E+00
    76.505   0.343510E+01   0.188299E+00
    77.005   0.343218E+01   0.186637E+00
    77.505   0.342934E+01   0.185019E+00
    78.005   0.342658E+01   0.183444E+00
    78.505   0.342389E+01   0.181908E+00
    79.005   0.342127E+01   0.180409E+00
    79.505   0.341872E+01   0.178946E+00
    80.005   0.341624E+01   0.177517E+00
    80.505   0.341382E+01   0.176122E+00
    81.005   0.341147E+01   0.174757E+00
    81.505   0.340918E+01   0.173422E+00
    82.005   0.340695E+01   0.172116E+00
    82.505   0.340477E+01   0.170836E+00
    83.005   0.340265E+01   0.169581E+00
    83.505   0.340059E+01   0.168353E+00
    84.005   0.339857E+01   0.167148E+00
    84.505   0.339660E+01   0.165965E+00
    85.005   0.339468E+01   0.164803E+00
    85.505   0.339281E+01   0.163663E+00
    86.005   0.339099E+01   0.162543E+00
    86.505   0.338920E+01   0.161442E+00
    87.005   0.338745E+01   0.160360E+00
    87.505   0.338576E+01   0.159296E+00
    88.005   0.338410E+01   0.158249E+00
    88.505   0.338248E+01   0.157218E+00
    89.005   0.338089E+01   0.156203E+00
    89.505   0.337934E+01   0.155204E+00
    90.005   0.337783E+01   0.154220E+00
    90.505   0.337635E+01   0.153249E+00
    91.005   0.337490E+01   0.152293E+00
    91.505   0.337349E+01   0.151351E+00
    92.005   0.337210E+01   0.150422E+00
    92.505   0.337074E+01   0.149505E+00
    93.005   0.336942E+01   0.148601E+00
    93.505   0.336812E+01   0.147708E+00
    94.005   0.336685E+01   0.146828E+00
    94.505   0.336561E+01   0.145958E+00
    95.005   0.336438E+01   0.145099E+00
    95.505   0.336319E+01   0.144251E+00
    96.005   0.336201E+01   0.143413E+00
    96.505   0.336087E+01   0.142585E+00
    97.005   0.335975E+01   0.141767E+00
    97.505   0.335865E+01   0.140960E+00
    98.005   0.335757E+01   0.140160E+00
    98.505   0.335651E+01   0.139370E+00
    99.005   0.335547E+01   0.138589E+00
    99.505   0.335445E+01   0.137818E+00
   100.005   0.335344E+01   0.137055E+00
   105.005   0.334439E+01   0.129854E+00
   110.005   0.333677E+01   0.123351E+00
   115.005   0.333027E+01   0.117437E+00
   120.005   0.332465E+01   0.112035E+00
   125.005   0.331976E+01   0.107083E+00
   130.005   0.331546E+01   0.102527E+00
   135.005   0.331165E+01   0.983302E-01
   140.005   0.330824E+01   0.944491E-01
   145.005   0.330519E+01   0.908518E-01
   150.005   0.330245E+01   0.875157E-01
   155.005   0.329995E+01   0.844092E-01
   160.005   0.329768E+01   0.815123E-01
   165.005   0.329562E+01   0.788056E-01
   170.005   0.329372E+01   0.762719E-01
   175.005   0.329197E+01   0.738933E-01
   180.005   0.329035E+01   0.716627E-01
   185.005   0.328885E+01   0.695589E-01
   190.005   0.328738E+01   0.675775E-01
   195.005   0.328603E+01   0.658425E-01
   200.005   0.328487E+01   0.641965E-01
   205.005   0.328379E+01   0.626309E-01
   210.005   0.328281E+01   0.611397E-01
   215.005   0.328192E+01   0.597179E-01
   220.005   0.328108E+01   0.583605E-01
   225.005   0.328031E+01   0.570637E-01
   230.005   0.327959E+01   0.558234E-01
   235.005   0.327892E+01   0.546356E-01
   240.005   0.327830E+01   0.534973E-01
   245.005   0.327772E+01   0.524057E-01
   250.005   0.327717E+01   0.513575E-01
   255.005   0.327666E+01   0.503504E-01
   260.005   0.327618E+01   0.493822E-01
   265.005   0.327573E+01   0.484504E-01
   270.005   0.327531E+01   0.475533E-01
   275.005   0.327491E+01   0.466887E-01
   280.005   0.327452E+01   0.458551E-01
   285.005   0.327416E+01   0.450505E-01
   290.005   0.327383E+01   0.442739E-01
   295.005   0.327351E+01   0.435234E-01
   300.005   0.327321E+01   0.427980E-01
   305.005   0.327291E+01   0.420965E-01
   310.005   0.327264E+01   0.414175E-01
   315.005   0.327238E+01   0.407601E-01
   320.005   0.327213E+01   0.401232E-01
   325.005   0.327189E+01   0.395059E-01
   330.005   0.327166E+01   0.389074E-01
   335.005   0.327145E+01   0.383267E-01
   340.005   0.327124E+01   0.377631E-01
   345.005   0.327105E+01   0.372158E-01
   350.005   0.327086E+01   0.366841E-01
   355.005   0.327068E+01   0.361675E-01
   360.005   0.327050E+01   0.356651E-01
   365.005   0.327034E+01   0.351765E-01
   370.005   0.327018E+01   0.347012E-01
   375.005   0.327003E+01   0.342385E-01
   380.005   0.326989E+01   0.337881E-01
   385.005   0.326974E+01   0.333493E-01
   390.005   0.326961E+01   0.329217E-01
   395.005   0.326948E+01   0.325050E-01
   400.005   0.326936E+01   0.320987E-01
   405.005   0.326923E+01   0.317024E-01
   410.005   0.326912E+01   0.313158E-01
   415.005   0.326901E+01   0.309385E-01
   420.005   0.326890E+01   0.305702E-01
   425.005   0.326880E+01   0.302106E-01
   430.005   0.326870E+01   0.298592E-01
   435.005   0.326860E+01   0.295160E-01
   440.005   0.326851E+01   0.291806E-01
   445.005   0.326842E+01   0.288528E-01
   450.005   0.326834E+01   0.285323E-01
   455.005   0.326825E+01   0.282187E-01
   460.005   0.326817E+01   0.279119E-01
   465.005   0.326809E+01   0.276118E-01
   470.005   0.326801E+01   0.273181E-01
   475.005   0.326794E+01   0.270305E-01
   480.005   0.326787E+01   0.267489E-01
   485.005   0.326780E+01   0.264732E-01
   490.005   0.326773E+01   0.262031E-01
   495.005   0.326767E+01   0.259384E-01
   500.005   0.326761E+01   0.256790E-01
   505.005   0.326754E+01   0.254248E-01
   510.005   0.326749E+01   0.251755E-01
   515.005   0.326743E+01   0.249311E-01
   520.005   0.326738E+01   0.246914E-01
   525.005   0.326732E+01   0.244562E-01
   530.005   0.326727E+01   0.242255E-01
   535.005   0.326722E+01   0.239991E-01
   540.005   0.326716E+01   0.237769E-01
   545.005   0.326712E+01   0.235587E-01
   550.005   0.326707E+01   0.233446E-01
   555.005   0.326703E+01   0.231343E-01
   560.005   0.326699E+01   0.229277E-01
   565.005   0.326694E+01   0.227248E-01
   570.005   0.326689E+01   0.225256E-01
   575.005   0.326685E+01   0.223296E-01
   580.005   0.326681E+01   0.221371E-01
   585.005   0.326678E+01   0.219479E-01
   590.005   0.326674E+01   0.217619E-01
   595.005   0.326670E+01   0.215790E-01
   600.005   0.326666E+01   0.213992E-01
   605.005   0.326663E+01   0.212224E-01
   610.005   0.326659E+01   0.210485E-01
   615.005   0.326656E+01   0.208773E-01
   620.005   0.326653E+01   0.207089E-01
   625.005   0.326650E+01   0.205432E-01
   630.005   0.326647E+01   0.203802E-01
   635.005   0.326644E+01   0.202197E-01
   640.005   0.326641E+01   0.200618E-01
   645.005   0.326638E+01   0.199062E-01
   650.005   0.326635E+01   0.197531E-01
   655.005   0.326632E+01   0.196023E-01
   660.005   0.326629E+01   0.194538E-01
   665.005   0.326627E+01   0.193076E-01
   670.005   0.326624E+01   0.191635E-01
   675.005   0.326622E+01   0.190215E-01
   680.005   0.326619E+01   0.188816E-01
   685.005   0.326617E+01   0.187438E-01
   690.005   0.326615E+01   0.186080E-01
   695.005   0.326612E+01   0.184742E-01
   700.005   0.326610E+01   0.183422E-01
   705.005   0.326608E+01   0.182121E-01
   710.005   0.326606E+01   0.180839E-01
   715.005   0.326604E+01   0.179575E-01
   720.005   0.326602E+01   0.178327E-01
   725.005   0.326599E+01   0.177097E-01
   730.005   0.326597E+01   0.175884E-01
   735.005   0.326595E+01   0.174687E-01
   740.005   0.326593E+01   0.173507E-01
   745.005   0.326591E+01   0.172343E-01
   750.005   0.326589E+01   0.171194E-01
   755.005   0.326588E+01   0.170060E-01
   760.005   0.326587E+01   0.168941E-01
   765.005   0.326585E+01   0.167837E-01
   770.005   0.326583E+01   0.166747E-01
   775.005   0.326581E+01   0.165672E-01
   780.005   0.326579E+01   0.164610E-01
   785.005   0.326578E+01   0.163561E-01
   790.005   0.326577E+01   0.162526E-01
   795.005   0.326575E+01   0.161504E-01
   800.005   0.326573E+01   0.160494E-01
   805.005   0.326572E+01   0.159497E-01
   810.005   0.326571E+01   0.158513E-01
   815.005   0.326569E+01   0.157541E-01
   820.005   0.326568E+01   0.156580E-01
   825.005   0.326566E+01   0.155630E-01
   830.005   0.326565E+01   0.154693E-01
   835.005   0.326563E+01   0.153767E-01
   840.005   0.326562E+01   0.152852E-01
   845.005   0.326561E+01   0.151947E-01
   850.005   0.326560E+01   0.151053E-01
   855.005   0.326559E+01   0.150170E-01
   860.005   0.326558E+01   0.149297E-01
   865.005   0.326556E+01   0.148435E-01
   870.005   0.326555E+01   0.147581E-01
   875.005   0.326553E+01   0.146738E-01
   880.005   0.326552E+01   0.145904E-01
   885.005   0.326551E+01   0.145079E-01
   890.005   0.326550E+01   0.144264E-01
   895.005   0.326549E+01   0.143459E-01
   900.005   0.326548E+01   0.142662E-01
   905.005   0.326547E+01   0.141874E-01
   910.005   0.326546E+01   0.141094E-01
   915.005   0.326545E+01   0.140323E-01
   920.005   0.326544E+01   0.139560E-01
   925.005   0.326543E+01   0.138806E-01
   930.005   0.326542E+01   0.138060E-01
   935.005   0.326541E+01   0.137321E-01
   940.005   0.326541E+01   0.136591E-01
   945.005   0.326540E+01   0.135868E-01
   950.005   0.326539E+01   0.135153E-01
   955.005   0.326538E+01   0.134445E-01
   960.005   0.326537E+01   0.133745E-01
   965.005   0.326536E+01   0.133053E-01
   970.005   0.326535E+01   0.132367E-01
   975.005   0.326535E+01   0.131689E-01
   980.005   0.326534E+01   0.131016E-01
   985.005   0.326533E+01   0.130351E-01
   990.005   0.326532E+01   0.129693E-01
   995.005   0.326531E+01   0.129041E-01
  1000.005   0.326530E+01   0.128396E-01
  1020.005   0.326528E+01   0.125878E-01
  1040.005   0.326525E+01   0.123458E-01
  1060.005   0.326523E+01   0.121128E-01
  1080.005   0.326520E+01   0.118884E-01
  1100.005   0.326517E+01   0.116724E-01
  1120.005   0.326515E+01   0.114639E-01
  1140.005   0.326513E+01   0.112627E-01
  1160.005   0.326511E+01   0.110685E-01
  1180.005   0.326509E+01   0.108810E-01
  1200.005   0.326507E+01   0.106996E-01
  1220.005   0.326506E+01   0.105242E-01
  1240.005   0.326504E+01   0.103546E-01
  1260.005   0.326503E+01   0.101901E-01
  1280.005   0.326501E+01   0.100310E-01
  1300.005   0.326500E+01   0.987657E-02
  1320.005   0.326498E+01   0.972693E-02
  1340.005   0.326497E+01   0.958175E-02
  1360.005   0.326495E+01   0.944086E-02
  1380.005   0.326495E+01   0.930405E-02
  1400.005   0.326494E+01   0.917114E-02
  1420.005   0.326492E+01   0.904196E-02
  1440.005   0.326491E+01   0.891641E-02
  1460.005   0.326490E+01   0.879422E-02
  1480.005   0.326490E+01   0.867541E-02
  1500.005   0.326488E+01   0.855971E-02
  1520.005   0.326488E+01   0.844711E-02
  1540.005   0.326487E+01   0.833742E-02
  1560.005   0.326486E+01   0.823051E-02
  1580.005   0.326485E+01   0.812633E-02
  1600.005   0.326484E+01   0.802475E-02
  1620.005   0.326484E+01   0.792566E-02
  1640.005   0.326483E+01   0.782901E-02
  1660.005   0.326482E+01   0.773471E-02
  1680.005   0.326482E+01   0.764262E-02
  1700.005   0.326481E+01   0.755272E-02
  1720.005   0.326480E+01   0.746489E-02
  1740.005   0.326480E+01   0.737908E-02
  1760.005   0.326479E+01   0.729522E-02
  1780.005   0.326479E+01   0.721325E-02
  1800.005   0.326478E+01   0.713312E-02
  1820.005   0.326478E+01   0.705473E-02
  1840.005   0.326477E+01   0.697805E-02
  1860.005   0.326477E+01   0.690302E-02
  1880.005   0.326476E+01   0.682958E-02
  1900.005   0.326476E+01   0.675766E-02
  1920.005   0.326475E+01   0.668729E-02
  1940.005   0.326475E+01   0.661835E-02
  1960.005   0.326474E+01   0.655083E-02
  1980.005   0.326474E+01   0.648466E-02
  2000.005   0.326474E+01   0.641979E-02
  2020.005   0.326473E+01   0.635624E-02
  2040.005   0.326473E+01   0.629392E-02
  2060.005   0.326473E+01   0.623280E-02
  2080.005   0.326472E+01   0.617288E-02
  2100.005   0.326472E+01   0.611410E-02
  2120.005   0.326472E+01   0.605642E-02
  2140.005   0.326471E+01   0.599981E-02
  2160.005   0.326471E+01   0.594424E-02
  2180.005   0.326471E+01   0.588971E-02
  2200.005   0.326470E+01   0.583618E-02
  2220.005   0.326470E+01   0.578361E-02
  2240.005   0.326470E+01   0.573196E-02
  2260.005   0.326470E+01   0.568122E-02
  2280.005   0.326469E+01   0.563141E-02
  2300.005   0.326469E+01   0.558244E-02
  2320.005   0.326469E+01   0.553431E-02
  2340.005   0.326469E+01   0.548701E-02
  2360.005   0.326469E+01   0.544052E-02
  2380.005   0.326468E+01   0.539479E-02
  2400.005   0.326468E+01   0.534984E-02
  2420.005   0.326468E+01   0.530562E-02
  2440.005   0.326468E+01   0.526213E-02
  2460.005   0.326467E+01   0.521934E-02
  2480.005   0.326467E+01   0.517726E-02
  2500.005   0.326467E+01   0.513585E-02
  2520.005   0.326467E+01   0.509508E-02
  2540.005   0.326467E+01   0.505496E-02
  2560.005   0.326466E+01   0.501547E-02
  2580.005   0.326466E+01   0.497659E-02
  2600.005   0.326466E+01   0.493830E-02
  2620.005   0.326466E+01   0.490062E-02
  2640.005   0.326466E+01   0.486349E-02
  2660.005   0.326466E+01   0.482692E-02
  2680.005   0.326465E+01   0.479090E-02
  2700.005   0.326465E+01   0.475542E-02
  2720.005   0.326465E+01   0.472045E-02
  2740.005   0.326465E+01   0.468599E-02
  2760.005   0.326465E+01   0.465203E-02
  2780.005   0.326465E+01   0.461856E-02
  2800.005   0.326465E+01   0.458558E-02
  2820.005   0.326464E+01   0.455305E-02
  2840.005   0.326464E+01   0.452098E-02
  2860.005   0.326464E+01   0.448937E-02
  2880.005   0.326464E+01   0.445820E-02
  2900.005   0.326464E+01   0.442745E-02
  2920.005   0.326464E+01   0.439712E-02
  2940.005   0.326465E+01   0.436721E-02
  2960.005   0.326457E+01   0.433771E-02
  2980.005   0.326424E+01   0.430859E-02
