# Material:  Mg0.95 Fe0.05 SiO3, amorphous
# Reference: Dorschner et al 1995, A&A 300, 503
#
# Name:       Pyroxene
# Class:      Silicates
# State:      amorphous
# Formula:    Mg_{0.95}Fe_{0.05}SiO_{3}
# ADS-link:   https://ui.adsabs.harvard.edu/abs/1995A&A...300..503D
# BibTeX-key: 1995A&A...300..503D
#
# At the shortest wavelengths, the original data has no measurement
# for the imaginary part of the refractive index. We have set a small
# positive value (0.000001) to work around this issue.
#
# First line is N_lam and rho [g/cm^3], other lines are: lambda[um] n k
     109  2.74   
     0.20000    1.749150    0.000001
     0.22000    1.705740    0.000001
     0.24000    1.680360    0.000001
     0.26000    1.660000    0.000001
     0.28000    1.646130    0.000001
     0.30000    1.636440    0.000001
     0.32000    1.625690    0.000001
     0.34000    1.617980    0.001657
     0.36000    1.611100    0.000883
     0.38000    1.606220    0.000535
     0.40000    1.601810    0.000400
     0.42000    1.598740    0.000338
     0.45000    1.595190    0.000309
     0.50000    1.589000    0.000290
     0.55000    1.586760    0.000302
     0.60000    1.584290    0.000310
     0.65000    1.580100    0.000327
     0.70000    1.576750    0.000351
     0.75000    1.573470    0.000384
     0.80000    1.573210    0.000423
     0.90000    1.567460    0.000507
     1.00000    1.565090    0.000581
     1.10000    1.560780    0.000623
     1.20000    1.556640    0.000645
     1.30000    1.561120    0.000630
     1.40000    1.559960    0.000617
     1.50000    1.549120    0.000634
     1.60000    1.545860    0.000647
     1.70000    1.547250    0.000677
     1.80000    1.546810    0.000684
     1.90000    1.540700    0.000714
     2.00000    1.541320    0.000696
     2.20000    1.544720    0.000713
     2.40000    1.537300    0.000742
     2.60000    1.537310    0.000781
     2.80000    1.532930    0.000864
     3.00000    1.525040    0.000893
     3.50000    1.518320    0.000989
     4.00000    1.510980    0.001014
     4.50000    1.497260    0.001231
     5.00000    1.480320    0.002875
     5.50000    1.453470    0.004356
     6.00000    1.420680    0.004372
     6.50000    1.380050    0.004904
     7.00000    1.327960    0.006005
     7.50000    1.246000    0.009166
     8.00000    1.087590    0.055000
     8.20000    0.988948    0.135106
     8.40000    0.921661    0.255064
     8.60000    0.893676    0.381920
     8.80000    0.885859    0.511910
     9.00000    0.907217    0.657380
     9.20000    0.968600    0.807352
     9.40000    1.078710    0.938979
     9.60000    1.226040    1.037090
     9.80000    1.397440    1.086950
    10.00000    1.561320    1.082470
    10.20000    1.708670    1.039570
    10.40000    1.826180    0.976048
    10.60000    1.926190    0.901407
    10.80000    2.008440    0.807724
    11.00000    2.066300    0.701749
    11.20000    2.095540    0.596350
    11.40000    2.103720    0.481748
    11.60000    2.088110    0.374900
    11.80000    2.038670    0.271590
    12.00000    1.956320    0.208511
    12.50000    1.786510    0.182888
    13.00000    1.709440    0.193131
    13.50000    1.650220    0.199390
    14.00000    1.588100    0.206126
    14.50000    1.525840    0.211363
    15.00000    1.442530    0.225029
    15.50000    1.343140    0.283539
    16.00000    1.260250    0.392488
    16.50000    1.223650    0.530437
    17.00000    1.239520    0.669830
    17.50000    1.288840    0.801931
    18.00000    1.370020    0.908129
    18.50000    1.470300    0.980315
    19.00000    1.573260    1.021550
    19.50000    1.671950    1.039400
    20.00000    1.755450    1.039810
    21.00000    1.889700    1.007370
    22.00000    1.978960    0.966505
    23.00000    2.045730    0.927805
    24.00000    2.092910    0.898775
    25.00000    2.135940    0.878661
    26.00000    2.173560    0.861058
    27.00000    2.213950    0.842456
    28.00000    2.255510    0.823374
    29.00000    2.292280    0.809736
    30.00000    2.326180    0.784611
    32.00000    2.391380    0.736845
    34.00000    2.441340    0.681090
    36.00000    2.471570    0.624200
    38.00000    2.497960    0.573172
    40.00000    2.503780    0.535125
    45.00000    2.521820    0.459279
    50.00000    2.532000    0.413302
    55.00000    2.553140    0.357272
    60.00000    2.548360    0.324218
    65.00000    2.543450    0.293087
    70.00000    2.544950    0.278053
    75.00000    2.551280    0.261680
    80.00000    2.555340    0.244209
   100.00000    2.558940    0.195
   200.00000    2.558940    0.1
   500.00000    2.558940    0.039
